Data from USB2H144621__20__14-00-03-384.txt Node

Date: Tue Apr 23 14:00:03 CEST 2024
User: experimenter
Spectrometer: USB2+H14462
Trigger mode: 0
Integration Time (sec): 4,500000E-2
Scans to average: 5
Electric dark correction enabled: true
Nonlinearity correction enabled: false
Boxcar width: 0
XAxis mode: Wavelengths
Number of Pixels in Spectrum: 2048
>>>>>Begin Spectral Data<<<<<
171,283	-64,12
171,67	-64,12
172,056	-64,12
172,443	-80,69
172,829	-86,39
173,216	-113,83
173,602	-126,26
173,989	-108,14
174,375	-104,51
174,762	-68,78
175,148	-72,4
175,534	-28,9
175,921	-11,3
176,307	-50,14
176,693	28,06
177,08	38,42
177,466	48,26
177,852	65,35
178,238	74,15
178,624	92,79
179,01	94,35
179,396	129,04
179,782	134,74
180,168	178,24
180,554	221,22
180,94	175,65
181,326	219,15
181,712	245,04
182,098	259,03
182,484	242,97
182,87	295,28
183,255	312,88
183,641	290,62
184,027	315,99
184,413	266,79
184,798	346,54
185,184	306,67
185,57	325,83
185,955	321,17
186,341	331,53
186,726	330,49
187,112	342,4
187,497	368,81
187,883	337,22
188,268	334,63
188,653	317,54
189,039	361,56
189,424	317,03
189,809	301,49
190,195	322,72
190,58	336,71
190,965	335,67
191,35	326,87
191,735	349,13
192,12	329,46
192,505	315,99
192,891	336,71
193,276	290,62
193,661	312,37
194,046	344,47
194,43	337,22
194,815	318,06
195,2	284,4
195,585	308,74
195,97	301,49
196,355	335,15
196,739	343,44
197,124	285,96
197,509	331,53
197,894	297,35
198,278	289,06
198,663	294,24
199,047	321,17
199,432	310,29
199,816	307,71
200,201	291,65
200,585	310,29
200,97	318,58
201,354	311,85
201,739	306,15
202,123	314,44
202,507	297,87
202,892	284,4
203,276	321,17
203,66	321,17
204,044	312,37
204,428	325,83
204,813	318,06
205,197	312,37
205,581	309,26
205,965	267,31
206,349	315,47
206,733	318,06
207,117	325,31
207,501	298,9
207,885	318,06
208,269	308,74
208,652	306,67
209,036	310,29
209,42	324,79
209,804	309,78
210,187	342,92
210,571	325,31
210,955	322,72
211,338	299,94
211,722	327,9
212,106	310,29
212,489	334,12
212,873	307,19
213,256	326,35
213,64	322,72
214,023	341,88
214,406	347,06
214,79	296,31
215,173	346,03
215,556	368,81
215,94	283,37
216,323	340,33
216,706	346,03
217,089	306,15
217,472	309,26
217,856	291,65
218,239	340,33
218,622	323,76
219,005	323,24
219,388	325,31
219,771	329,46
220,154	340,33
220,537	349,65
220,919	329,97
221,302	330,49
221,685	358,46
222,068	360,53
222,451	333,6
222,833	339,29
223,216	350,69
223,599	379,69
223,981	346,03
224,364	347,58
224,746	346,54
225,129	354,31
225,512	319,62
225,894	349,65
226,276	365,19
226,659	363,12
227,041	330,49
227,424	343,44
227,806	350,69
228,188	339,81
228,57	365,19
228,953	359,49
229,335	350,69
229,717	318,06
230,099	339,29
230,481	342,4
230,863	354,31
231,245	382,79
231,627	366,22
232,009	358,97
232,391	362,6
232,773	351,72
233,155	374,51
233,537	372,96
233,919	366,74
234,301	375,54
234,682	385,9
235,064	347,06
235,446	371,4
235,828	370,88
236,209	380,21
236,591	354,83
236,972	333,6
237,354	370,88
237,736	357,94
238,117	389,53
238,498	369,33
238,88	374,51
239,261	344,99
239,643	357,94
240,024	355,35
240,405	372,96
240,787	394,19
241,168	395,22
241,549	408,17
241,93	407,13
242,311	427,33
242,692	405,58
243,073	392,63
243,455	456,85
243,836	437,17
244,217	486,88
244,597	464,62
244,978	525,72
245,359	549,55
245,74	532,97
246,121	594,6
246,502	611,69
246,883	604,44
247,263	691,44
247,644	774,3
248,025	893,92
248,405	1105,73
248,786	1981,94
249,166	4055,45
249,547	7925,4
249,927	13269,19
250,308	20029,83
250,688	26078,42
251,069	30642,31
251,449	33896,53
251,83	35904,78
252,21	37470,27
252,59	38110,86
252,97	39276,56
253,351	40500,78
253,731	41377,51
254,111	42705,3
254,491	43412,18
254,871	43785,04
255,251	44410,09
255,631	45299,26
256,011	45444,77
256,391	46153,72
256,771	45848,19
257,151	45461,86
257,531	44249,56
257,911	41752,96
258,291	36949,3
258,67	30352,3
259,05	22978
259,43	16342,68
259,81	10290,46
260,189	5568,11
260,569	2349,62
260,948	1342,9
261,328	1080,87
261,707	960,21
262,087	879,42
262,466	843,69
262,846	807,96
263,225	742,19
263,605	709,56
263,984	734,42
264,363	661,4
264,742	645,87
265,122	661,92
265,501	609,1
265,88	629,81
266,259	609,62
266,638	593,56
267,017	578,03
267,396	580,1
267,775	543,33
268,154	596,67
268,533	567,15
268,912	574,4
269,291	586,83
269,67	576,47
270,049	598,22
270,427	520,54
270,806	540,22
271,185	543,33
271,563	536,6
271,942	561,97
272,321	526,76
272,699	561,46
273,078	544,88
273,456	567,15
273,835	569,74
274,213	577,51
274,592	573,37
274,97	574,92
275,348	546,96
275,727	593,05
276,105	563,53
276,483	580,62
276,861	566,63
277,24	598,74
277,618	645,35
277,996	608,58
278,374	617,38
278,752	659,85
279,13	639,13
279,508	636,03
279,886	636,03
280,264	627,74
280,642	636,55
281,02	602,37
281,397	680,05
281,775	619,97
282,153	635,51
282,531	619,97
282,908	599,78
283,286	622,05
283,664	589,42
284,041	588,9
284,419	616,35
284,796	613,24
285,174	657,26
285,551	628,78
285,929	639,65
286,306	613,24
286,683	626,71
287,061	606,51
287,438	630,33
287,815	634,99
288,192	619,97
288,569	593,56
288,947	624,63
289,324	588,9
289,701	570,78
290,078	600,81
290,455	614,28
290,832	620,49
291,209	588,38
291,586	630,33
291,963	648,97
292,339	801,74
292,716	941,05
293,093	1081,9
293,47	1203,6
293,846	1308,73
294,223	1312,35
294,6	1331,51
294,976	1387,44
295,353	1384,33
295,729	1355,33
296,106	1402,46
296,482	1402,46
296,859	1431,98
297,235	1445,96
297,612	1449,07
297,988	1485,83
298,364	1483,76
298,741	1509,65
299,117	1560,92
299,493	1517,94
299,869	1567,14
300,245	1500,33
300,621	1401,94
300,997	1383,3
301,373	1205,67
301,749	1138,35
302,125	990,76
302,501	879,42
302,877	785,69
303,253	725,1
303,629	652,6
304,005	636,03
304,38	656,74
304,756	634,99
305,132	626,19
305,508	616,35
305,883	603,92
306,259	597,71
306,634	599,26
307,01	570,78
307,385	619,97
307,761	720,44
308,136	1067,4
308,512	1609,08
308,887	2301,46
309,262	3043,55
309,637	3703,3
310,013	4141,41
310,388	4492,52
310,763	4707,43
311,138	4792,88
311,513	4925,45
311,888	5027,47
312,263	5074,08
312,638	5146,06
313,013	5111,36
313,388	5147,61
313,763	5161,59
314,138	5108,25
314,513	5118,61
314,888	5079,77
315,262	5076,15
315,637	4934,25
316,012	4936,84
316,386	4724,52
316,761	4414,32
317,136	3988,13
317,51	3391,03
317,885	2797,57
318,259	2141,44
318,634	1646,37
319,008	1235,71
319,382	876,31
319,757	632,92
320,131	545,4
320,505	474,46
320,88	469,28
321,254	452,19
321,628	440,79
322,002	415,42
322,376	380,72
322,75	431,99
323,124	418,53
323,498	417,49
323,872	428,37
324,246	410,76
324,62	399,37
324,994	417,49
325,368	391,08
325,741	410,24
326,115	395,74
326,489	415,42
326,862	417,49
327,236	401,44
327,61	401,96
327,983	411,28
328,357	410,76
328,73	418,01
329,104	420,6
329,477	439,76
329,851	450,12
330,224	498,28
330,597	490,51
330,97	559,38
331,344	537,63
331,717	550,58
332,09	555,24
332,463	554,72
332,836	556,8
333,209	567,67
333,582	578,03
333,955	543,33
334,328	556,8
334,701	560,94
335,074	579,06
335,447	559,9
335,82	587,87
336,193	560,42
336,565	551,62
336,938	574,4
337,311	554,72
337,683	549,55
338,056	547,99
338,429	522,62
338,801	524,69
339,174	517,44
339,546	474,97
339,918	440,79
340,291	450,63
340,663	429,92
341,036	420,08
341,408	386,94
341,78	419,04
342,152	395,74
342,524	437,69
342,897	409,72
343,269	442,87
343,641	399,88
344,013	438,72
344,385	402,99
344,757	419,56
345,129	395,74
345,501	455,29
345,872	442,87
346,244	454,78
346,616	441,31
346,988	465,65
347,359	458,4
347,731	472,9
348,103	460,47
348,474	452,71
348,846	453,22
349,217	443,38
349,589	431,99
349,96	458,4
350,332	463,06
350,703	481,19
351,074	485,85
351,446	487,4
351,817	476,01
352,188	487,4
352,559	481,19
352,931	490,51
353,302	508,12
353,673	513,29
354,044	514,33
354,415	548,51
354,786	526,76
355,157	570,78
355,528	575,96
355,898	580,62
356,269	619,46
356,64	624,63
357,011	615,83
357,382	637,06
357,752	608,06
358,123	689,37
358,493	688,85
358,864	714,22
359,235	738,56
359,605	831,78
359,976	1081,39
360,346	1643,26
360,716	2499,8
361,087	3574,36
361,457	4728,66
361,827	5777,84
362,198	6510,61
362,568	7231,47
362,938	7529,24
363,308	7871,55
363,678	7913,49
364,048	8013,96
364,418	8051,24
364,788	8077,65
365,158	8146,53
365,528	8166,21
365,898	8040,89
366,268	8191,58
366,637	8115,46
367,007	8130,99
367,377	8114,42
367,747	8125,3
368,116	8087,49
368,486	7904,69
368,855	7352,65
369,225	6686,69
369,595	5987,58
369,964	5130,52
370,333	4256,89
370,703	3630,29
371,072	2978,82
371,441	2472,35
371,811	2052,37
372,18	1805,35
372,549	1652,07
372,918	1569,73
373,287	1533,48
373,656	1559,89
374,026	1491,53
374,395	1526,74
374,764	1536,07
375,132	1605,46
375,501	1623,58
375,87	1620,99
376,239	1651,03
376,608	1667,6
376,977	1724,05
377,345	1688,83
377,714	1747,35
378,083	1743,73
378,451	1742,69
378,82	1806,91
379,188	1827,1
379,557	1836,42
379,925	1864,91
380,294	1889,76
380,662	1926,53
381,03	1902,71
381,399	1922,39
381,767	1943,1
382,135	2022,85
382,503	2011,98
382,871	2013,53
383,24	2042,01
383,608	2054,44
383,976	2097,94
384,344	2082,41
384,712	2134,19
385,079	2141,96
385,447	2126,42
385,815	2178,73
386,183	2156,46
386,551	2209,28
386,918	2225,34
387,286	2161,12
387,654	2247,6
388,021	2239,32
388,389	2217,57
388,757	2228,44
389,124	2290,07
389,491	2275,57
389,859	2293,69
390,226	2244,5
390,594	2267,8
390,961	2333,05
391,328	2332,01
391,695	2322,69
392,063	2255,37
392,43	2305,6
392,797	2307,67
393,164	2365,16
393,531	2332,01
393,898	2318,03
394,265	2350,66
394,632	2363,6
394,999	2388,46
395,366	2340,3
395,732	2349,62
396,099	2402,96
396,466	2335,12
396,833	2328,39
397,199	2368,26
397,566	2372,92
397,932	2333,05
398,299	2400,37
398,665	2444,39
399,032	2478,05
399,398	2685,19
399,765	3148,16
400,131	4284,34
400,497	5572,77
400,864	7113,4
401,23	8326,23
401,596	9266,66
401,962	9772,61
402,328	10064,68
402,694	10283,21
403,06	10394,04
403,426	10354,68
403,792	10674,72
404,158	10724,95
404,524	10828,52
404,89	10886,52
405,256	10659,7
405,622	10696,98
405,987	10732,72
406,353	10667,47
406,719	10471,71
407,084	10558,72
407,45	10382,13
407,815	10202,95
408,181	9680,43
408,546	9130,46
408,912	8158,44
409,277	6988,6
409,642	6002,6
410,008	5137,25
410,373	4510,13
410,738	3968,45
411,103	3493,05
411,468	3104,14
411,834	2837,44
412,199	2546,41
412,564	2419,53
412,929	2269,35
413,294	2256,41
413,658	2202,03
414,023	2127,98
414,388	2096,39
414,753	2134,71
415,118	2063,25
415,482	2097,42
415,847	1994,37
416,212	1983,5
416,576	1990,75
416,941	2028,03
417,305	1910,48
417,67	1888,21
418,034	1955,01
418,399	1935,33
418,763	1918,76
419,127	1934,82
419,491	1894,94
419,856	1884,07
420,22	1859,73
420,584	1835,39
420,948	1835,39
421,312	1847,3
421,676	1814,16
422,04	1798,62
422,404	1776,35
422,768	1788,78
423,132	1709,03
423,496	1770,14
423,86	1750,98
424,223	1766,51
424,587	1663,98
424,951	1670,19
425,314	1678,99
425,678	1661,39
426,041	1665,01
426,405	1635,49
426,768	1641,71
427,132	1636,01
427,495	1615,3
427,859	1626,69
428,222	1591,99
428,585	1578,53
428,948	1665,53
429,312	1627,21
429,675	1642,23
430,038	1712,66
430,401	2027
430,764	2894,93
431,127	5410,68
431,49	9195,19
431,853	13505,33
432,216	17385,64
432,579	20328,12
432,941	22770,34
433,304	24222,41
433,667	24897,7
434,029	25555,9
434,392	25754,24
434,755	25871,79
435,117	25882,67
435,48	25659,47
435,842	25649,11
436,205	26086,7
436,567	25670,86
436,929	25335,81
437,292	25242,08
437,654	25192,88
438,016	25288,17
438,378	24525,88
438,74	24195,48
439,103	23679,18
439,465	22317,21
439,827	19797,83
440,189	16272,25
440,551	12788,61
440,913	10188,96
441,274	8192,1
441,636	6440,7
441,998	5140,88
442,36	3960,16
442,721	3015,59
443,083	2246,05
443,445	1609,08
443,806	1350,67
444,168	1268,85
444,529	1218,62
444,891	1143,53
445,252	1165,28
445,614	1169,42
445,975	1158,55
446,336	1138,87
446,697	1114,01
447,059	1106,76
447,42	1076,21
447,781	1104,17
448,142	1066,37
448,503	1042,03
448,864	1016,65
449,225	1038,92
449,586	1055,49
449,947	1035,81
450,308	1034,78
450,668	987,14
451,029	980,92
451,39	960,72
451,751	995,42
452,111	969,01
452,472	1015,1
452,832	1002,15
453,193	964,87
453,553	940,53
453,914	913,6
454,274	960,72
454,634	937,94
454,995	914,64
455,355	921,37
455,715	879,94
456,075	928,62
456,436	890,81
456,796	918,26
457,156	901,17
457,516	877,35
457,876	859,22
458,236	916,19
458,596	875,28
458,955	854,05
459,315	869,58
459,675	837,47
460,035	855,6
460,394	871,14
460,754	845,24
461,114	867,51
461,473	832,3
461,833	837,47
462,192	825,05
462,552	826,6
462,911	793,97
463,27	812,1
463,63	834,37
463,989	785,69
464,348	798,12
464,707	811,58
465,066	821,42
465,425	811,06
465,785	782,06
466,144	778,96
466,503	822,97
466,861	790,35
467,22	825,05
467,579	844,21
467,938	830,74
468,297	808,47
468,655	801,22
469,014	799,67
469,373	786,21
469,731	784,13
470,09	811,58
470,448	742,71
470,807	779,47
471,165	770,15
471,524	817,28
471,882	801,22
472,24	780,51
472,599	768,08
472,957	822,46
473,315	800,19
473,673	819,35
474,031	791,9
474,389	788,28
474,747	788,8
475,105	786,21
475,463	756,69
475,821	805,89
476,179	784,13
476,537	790,35
476,894	784,13
477,252	777,4
477,61	818,83
477,967	777,4
478,325	793,46
478,683	783,1
479,04	787,76
479,398	775,33
479,755	817,28
480,112	851,46
480,47	781,03
480,827	781,55
481,184	822,97
481,541	805,37
481,899	867,51
482,256	816,24
482,613	790,35
482,97	823,49
483,327	764,46
483,684	805,37
484,041	831,78
484,397	806,4
484,754	811,58
485,111	821,94
485,468	788,28
485,824	805,89
486,181	816,76
486,538	829,19
486,894	831,26
487,251	794,49
487,607	805,37
487,964	819,87
488,32	858,71
488,676	840,58
489,033	840,58
489,389	865,96
489,745	875,8
490,101	862,85
490,457	871,65
490,814	866,47
491,17	857,15
491,526	852,49
491,882	829,71
492,237	834,89
492,593	846,28
492,949	859,74
493,305	849,9
493,661	842,65
494,016	862,33
494,372	844,21
494,728	820,39
495,083	852,49
495,439	806,92
495,794	796,56
496,15	808,99
496,505	802,26
496,86	800,71
497,216	788,8
497,571	784,65
497,926	767,56
498,281	751,51
498,637	773,78
498,992	734,42
499,347	752,03
499,702	747,88
500,057	744,26
500,412	699,21
500,766	734,94
501,121	718,88
501,476	732,35
501,831	759,28
502,185	704,38
502,54	718,37
502,895	703,35
503,249	736,49
503,604	760,83
503,958	764,97
504,313	714,22
504,667	751,51
505,022	706,46
505,376	732,35
505,73	715,78
506,084	704,9
506,438	729,76
506,793	730,28
507,147	745,81
507,501	735,97
507,855	725,1
508,209	699,21
508,563	697,65
508,917	718,88
509,27	721,47
509,624	738,05
509,978	737,53
510,332	701,28
510,685	707,49
511,039	712,15
511,392	701,8
511,746	685,74
512,099	727,69
512,453	696,1
512,806	716,81
513,16	702,83
513,513	737,53
513,866	721,47
514,219	744,26
514,572	718,37
514,926	726,65
515,279	719,92
515,632	746,85
515,985	704,38
516,338	753,58
516,69	727,69
517,043	744,26
517,396	701,28
517,749	736,49
518,102	713,19
518,454	732,35
518,807	753,58
519,16	699,21
519,512	727,69
519,865	726,13
520,217	742,19
520,569	742,19
520,922	735,97
521,274	738,05
521,626	700,76
521,979	702,31
522,331	719,92
522,683	725,1
523,035	705,94
523,387	694,55
523,739	718,37
524,091	722,51
524,443	716,3
524,795	715,26
525,147	720,44
525,499	690,92
525,85	697,65
526,202	738,56
526,554	737,53
526,905	699,72
527,257	689,88
527,608	701,8
527,96	707,49
528,311	720,44
528,663	710,6
529,014	696,62
529,365	684,71
529,717	732,35
530,068	708,01
530,419	705,94
530,77	714,22
531,121	708,53
531,472	715,78
531,823	699,21
532,174	746,85
532,525	710,6
532,876	717,33
533,227	749,96
533,577	723,55
533,928	685,22
534,279	704,38
534,629	726,13
534,98	708,53
535,33	708,53
535,681	744,26
536,031	702,31
536,382	680,56
536,732	712,15
537,082	709,56
537,433	711,12
537,783	740,63
538,133	772,22
538,483	778,96
538,833	780,51
539,183	836,44
539,533	835,4
539,883	883,56
540,233	933,8
540,583	1011,99
540,933	1437,67
541,282	4903,7
541,632	14340,64
541,982	24855,75
542,331	33861,31
542,681	42115,98
543,031	48839,86
543,38	53624,87
543,729	57630,5
544,079	60008,51
544,428	61055,1
544,778	61809,1
545,127	61849,5
545,476	62621,11
545,825	62348,71
546,174	62560,52
546,523	61760,94
546,872	61626,82
547,221	61366,85
547,57	61003,83
547,919	60738,69
548,268	60087,23
548,617	59678,63
548,966	58766,69
549,314	58143,18
549,663	56728,39
550,012	51408,43
550,36	41565,5
550,709	32795,04
551,057	25991,94
551,406	20865,65
551,754	16677,73
552,102	13619,78
552,451	10835,25
552,799	8534,41
553,147	6480,06
553,495	4761,29
553,843	3321,12
554,191	2174,59
554,539	1408,15
554,887	1006,81
555,235	864,92
555,583	841,1
555,931	805,37
556,279	785,69
556,626	734,94
556,974	752,55
557,322	734,94
557,669	738,05
558,017	784,65
558,364	748,4
558,712	743,74
559,059	751,51
559,407	764,97
559,754	763,94
560,101	740,63
560,449	732,87
560,796	692,99
561,143	747,37
561,49	720,44
561,837	737,01
562,184	740,12
562,531	733,38
562,878	706,97
563,225	698,69
563,572	697,13
563,918	708,01
564,265	704,38
564,612	712,67
564,958	704,38
565,305	703,35
565,651	720,96
565,998	728,21
566,344	701,28
566,691	717,85
567,037	720,44
567,383	687,3
567,73	721,47
568,076	687,81
568,422	749,96
568,768	700,76
569,114	721,99
569,46	742,71
569,806	721,47
570,152	725,62
570,498	713,19
570,844	730,28
571,19	676,42
571,535	766,53
571,881	804,33
572,227	1129,55
572,572	2199,44
572,918	3278,66
573,263	4270,36
573,609	5137,25
573,954	5901,61
574,3	6813,04
574,645	8431,35
574,99	10104,04
575,335	11474,29
575,68	12615,65
576,026	13439,04
576,371	14164,56
576,716	14702,1
577,061	15102,92
577,406	15225,66
577,75	15474,75
578,095	15356,16
578,44	15734,71
578,785	15608,35
579,13	15455,07
579,474	15364,96
579,819	15188,89
580,163	14997,28
580,508	14781,33
580,852	14233,44
581,197	13121,08
581,541	11914,47
581,885	11081,75
582,23	10184,3
582,574	9713,57
582,918	8852,89
583,262	7459,33
583,606	6030,04
583,95	4892,82
584,294	4019,72
584,638	3225,32
584,982	2708,5
585,326	2247,6
585,67	1790,33
586,014	1552,64
586,357	1293,71
586,701	1076,21
587,044	926,03
587,388	798,12
587,732	695,58
588,075	703,35
588,418	669,17
588,762	640,17
589,105	652,6
589,448	623,6
589,792	639,13
590,135	627,74
590,478	654,15
590,821	631,88
591,164	636,03
591,507	647,94
591,85	610,13
592,193	635,51
592,536	652,6
592,878	661,92
593,221	613,24
593,564	625,15
593,907	642,76
594,249	642,24
594,592	619,46
594,934	601,85
595,277	647,42
595,619	613,76
595,961	567,67
596,304	641,72
596,646	627,22
596,988	625,67
597,33	604,44
597,672	619,97
598,014	603,4
598,357	632,4
598,698	611,17
599,04	602,37
599,382	595,12
599,724	618,42
600,066	615,31
600,408	639,65
600,749	604,44
601,091	625,15
601,432	584,76
601,774	641,72
602,116	587,87
602,457	612,21
602,798	588,9
603,14	604,96
603,481	615,83
603,822	618,42
604,163	598,74
604,505	596,67
604,846	606,51
605,187	593,05
605,528	597,19
605,869	587,35
606,21	619,97
606,55	578,03
606,891	595,63
607,232	598,22
607,573	587,35
607,913	555,76
608,254	593,56
608,594	611,69
608,935	607,55
609,275	564,56
609,616	585,28
609,956	586,83
610,297	560,42
610,637	592,01
610,977	543,85
611,317	566,12
611,657	575,44
