Data from USB2H144621__10__12-06-30-768.txt Node

Date: Tue Apr 23 12:06:30 CEST 2024
User: experimenter
Spectrometer: USB2+H14462
Trigger mode: 0
Integration Time (sec): 5,000000E-2
Scans to average: 5
Electric dark correction enabled: true
Nonlinearity correction enabled: false
Boxcar width: 0
XAxis mode: Wavelengths
Number of Pixels in Spectrum: 2048
>>>>>Begin Spectral Data<<<<<
171,283	-65,74
171,67	-65,74
172,056	-65,74
172,443	-120,11
172,829	-69,88
173,216	-82,83
173,602	-115,97
173,989	-114,41
174,375	-100,95
174,762	-53,31
175,148	-66,77
175,534	-36,22
175,921	-31,56
176,307	2,62
176,693	-17,06
177,08	36,8
177,466	13,5
177,852	61,14
178,238	79,26
178,624	96,35
179,01	113,96
179,396	132,6
179,782	138,3
180,168	187,5
180,554	161,6
180,94	239,28
181,326	206,66
181,712	223,23
182,098	251,71
182,484	243,43
182,87	256,37
183,255	255,85
183,641	282,27
184,027	277,09
184,413	283,3
184,798	317,48
185,184	324,73
185,57	308,68
185,955	310,75
186,341	292,1
186,726	263,62
187,112	326,8
187,497	342,34
187,883	301,43
188,268	312,82
188,653	330,94
189,039	341,3
189,424	323,69
189,809	291,07
190,195	320,07
190,58	329,91
190,965	362,02
191,35	306,09
191,735	296,25
192,12	327,32
192,505	308,16
192,891	320,07
193,276	294,18
193,661	284,34
194,046	305,57
194,43	281,23
194,815	304,02
195,2	299,35
195,585	284,85
195,97	312,82
196,355	323,69
196,739	301,94
197,124	286,41
197,509	292,62
197,894	306,6
198,278	308,16
198,663	284,34
199,047	313,34
199,432	313,85
199,816	289
200,201	291,07
200,585	286,41
200,97	289
201,354	291,59
201,739	276,57
202,123	286,93
202,507	309,19
202,892	310,75
203,276	312,82
203,66	264,66
204,044	284,34
204,428	274,5
204,813	298,84
205,197	302,46
205,581	292,1
205,965	297,8
206,349	330,43
206,733	288,48
207,117	318
207,501	276,57
207,885	282,78
208,269	325,77
208,652	286,93
209,036	305,05
209,42	279,16
209,804	310,23
210,187	295,21
210,571	270,35
210,955	297,28
211,338	321,1
211,722	324,73
212,106	308,68
212,489	283,3
212,873	309,19
213,256	321,62
213,64	302,46
214,023	303,5
214,406	319,03
214,79	279,16
215,173	304,02
215,556	320,59
215,94	312,82
216,323	341,3
216,706	333,53
217,089	301,43
217,472	328,35
217,856	292,62
218,239	317,48
218,622	307,12
219,005	309,71
219,388	336,64
219,771	320,07
220,154	318
220,537	343,89
220,919	298,32
221,302	331,46
221,685	311,78
222,068	328,35
222,451	339,23
222,833	332,5
223,216	318,52
223,599	333,02
223,981	328,87
224,364	319,03
224,746	314,89
225,129	345,44
225,512	322,66
225,894	317,48
226,276	340,27
226,659	319,03
227,041	305,57
227,424	320,59
227,806	321,1
228,188	311,78
228,57	311,27
228,953	324,73
229,335	322,66
229,717	352,69
230,099	337,68
230,481	324,73
230,863	314,37
231,245	342,85
231,627	330,94
232,009	346,48
232,391	332,5
232,773	363,05
233,155	333,53
233,537	346,48
233,919	360,46
234,301	336,12
234,682	327,32
235,064	339,23
235,446	352,69
235,828	328,87
236,209	326,8
236,591	360,46
236,972	343,37
237,354	351,66
237,736	360,98
238,117	330,43
238,498	314,37
238,88	360,98
239,261	315,41
239,643	339,23
240,024	333,53
240,405	332,5
240,787	365,12
241,168	376,52
241,549	343,37
241,93	351,66
242,311	369,27
242,692	370,82
243,073	412,77
243,455	350,1
243,836	379,62
244,217	394,12
244,597	397,23
244,978	432,44
245,359	450,05
245,74	490,44
246,121	472,32
246,502	456,27
246,883	524,11
247,263	551,03
247,644	583,14
248,025	656,16
248,405	832,75
248,786	1412,75
249,166	2719,31
249,547	5314,81
249,927	8699,54
250,308	13298,12
250,688	17382,99
251,069	20333,23
251,449	22659,97
251,83	23758,86
252,21	24698,26
252,59	25267,39
252,97	25864,48
253,351	26790,41
253,731	27225,93
254,111	28264,75
254,491	28679,04
254,871	29114,04
255,251	29472,4
255,631	29787,77
256,011	30278,7
256,391	30443,9
256,771	30380,72
257,151	30164,78
257,531	29333,09
257,911	27501,95
258,291	24418,1
258,67	20308,89
259,05	15175,36
259,43	10702,62
259,81	6904,12
260,189	3656,63
260,569	1595,55
260,948	894,37
261,328	825,5
261,707	678,43
262,087	657,71
262,466	593,5
262,846	598,16
263,225	543,27
263,605	560,87
263,984	511,68
264,363	517,37
264,742	507,02
265,122	545,86
265,501	527,73
265,88	531,87
266,259	491,48
266,638	493,55
267,017	517,89
267,396	464,03
267,775	468,18
268,154	496,14
268,533	493,55
268,912	503,39
269,291	509,09
269,67	495,62
270,049	508,57
270,427	506,5
270,806	481,12
271,185	445,39
271,563	473,36
271,942	479,05
272,321	470,25
272,699	459,37
273,078	487,86
273,456	455,23
273,835	448,5
274,213	471,8
274,592	505,46
274,97	488,37
275,348	520,48
275,727	512,19
276,105	506,5
276,483	519,96
276,861	496,14
277,24	511,68
277,618	527,21
277,996	528,25
278,374	550,52
278,752	538,09
279,13	576,41
279,508	543,27
279,886	517,89
280,264	497,69
280,642	545,34
281,02	536,02
281,397	581,07
281,775	553,11
282,153	527,73
282,531	549,48
282,908	564,5
283,286	555,18
283,664	533,94
284,041	505,98
284,419	533,43
284,796	575,89
285,174	538,61
285,551	552,07
285,929	553,62
286,306	512,19
286,683	550,52
287,061	540,16
287,438	549,48
287,815	584,69
288,192	550,52
288,569	529,28
288,947	517,89
289,324	560,36
289,701	526,69
290,078	529,8
290,455	510,64
290,832	503,91
291,209	519,44
291,586	545,86
291,963	584,18
292,339	701,73
292,716	784,07
293,093	880,91
293,47	948,75
293,846	1010,89
294,223	1064,23
294,6	1102,04
294,976	1066,82
295,353	1056,98
295,729	1074,07
296,106	1107,21
296,482	1108,25
296,859	1107,73
297,235	1125,86
297,612	1126,89
297,988	1128,96
298,364	1168,32
298,741	1200,43
299,117	1176,61
299,493	1165,73
299,869	1158,48
300,245	1127,93
300,621	1111,36
300,997	1078,73
301,373	981,37
301,749	847,77
302,125	751,45
302,501	675,32
302,877	679,98
303,253	594,02
303,629	560,87
304,005	542,23
304,38	519,96
304,756	525,14
305,132	529,28
305,508	549,48
305,883	506,5
306,259	542,23
306,634	516,86
307,01	510,64
307,385	525,66
307,761	599,19
308,136	898,52
308,512	1246,52
308,887	1872,61
309,262	2446,91
309,637	2933,7
310,013	3292,58
310,388	3495,06
310,763	3694,95
311,138	3778,33
311,513	3882,94
311,888	3936,28
312,263	3974,6
312,638	3958,54
313,013	4062,11
313,388	4057,45
313,763	4005,67
314,138	3977,19
314,513	4005,67
314,888	4050,2
315,262	3958,54
315,637	3877,24
316,012	3895,88
316,386	3722,4
316,761	3531,83
317,136	3158,97
317,51	2705,84
317,885	2262,56
318,259	1797
318,634	1415,86
319,008	1004,68
319,382	722,45
319,757	586,25
320,131	495,11
320,505	458,34
320,88	444,87
321,254	412,25
321,628	403,96
322,002	428,3
322,376	399,82
322,75	411,73
323,124	368,23
323,498	381,69
323,872	396,71
324,246	399,82
324,62	392,05
324,994	380,14
325,368	369,78
325,741	360,46
326,115	382,73
326,489	339,75
326,862	363,05
327,236	392,05
327,61	391,53
327,983	350,1
328,357	355,8
328,73	388,43
329,104	385,84
329,477	369,27
329,851	401,37
330,224	429,85
330,597	432,96
330,97	458,86
331,344	431,41
331,717	457,82
332,09	439,69
332,463	481,64
332,836	452,64
333,209	502,87
333,582	467,14
333,955	471,8
334,328	460,93
334,701	474,91
335,074	481,64
335,447	458,86
335,82	500,8
336,193	480,09
336,565	513,23
336,938	497,69
337,311	494,59
337,683	463,52
338,056	455,75
338,429	466,11
338,801	417,43
339,174	402,41
339,546	434
339,918	431,41
340,291	416,91
340,663	387,39
341,036	412,77
341,408	373,93
341,78	376
342,152	379,62
342,524	402,41
342,897	374,96
343,269	401,89
343,641	365,64
344,013	359,43
344,385	369,27
344,757	393,6
345,129	407,07
345,501	400,34
345,872	396,71
346,244	388,43
346,616	410,18
346,988	400,34
347,359	400,34
347,731	413,28
348,103	393,6
348,474	408,62
348,846	393,6
349,217	420,53
349,589	401,89
349,96	417,94
350,332	386,35
350,703	412,77
351,074	416,39
351,446	425,71
351,817	407,59
352,188	416,39
352,559	420,02
352,931	436,07
353,302	451,09
353,673	477,5
354,044	487,86
354,415	458,34
354,786	461,44
355,157	452,12
355,528	470,77
355,898	478,53
356,269	512,71
356,64	482,16
357,011	496,66
357,382	520,48
357,752	552,07
358,123	528,77
358,493	575,37
358,864	572,78
359,235	565,02
359,605	652,53
359,976	803,75
360,346	1183,34
360,716	1752,47
361,087	2568,61
361,457	3238,2
361,827	3941,97
362,198	4516,79
362,568	4902,6
362,938	5128,9
363,308	5288,4
363,678	5410,62
364,048	5419,94
364,418	5553,55
364,788	5501,24
365,158	5556,14
365,528	5568,57
365,898	5589,8
366,268	5681,98
366,637	5610,51
367,007	5571,15
367,377	5557,69
367,747	5548,89
368,116	5533,35
368,486	5357,8
368,855	5057,96
369,225	4654,55
369,595	4115,97
369,964	3580,51
370,333	3025,36
370,703	2529,77
371,072	2133,61
371,441	1761,79
371,811	1543,25
372,18	1320,57
372,549	1182,3
372,918	1159
373,287	1120,68
373,656	1140,36
374,026	1181,79
374,395	1152,79
374,764	1197,32
375,132	1173,5
375,501	1197,84
375,87	1223,21
376,239	1227,87
376,608	1240,3
376,977	1205,09
377,345	1276,55
377,714	1345,95
378,083	1333,52
378,451	1292,61
378,82	1358,38
379,188	1357,34
379,557	1369,25
379,925	1386,34
380,294	1397,73
380,662	1466,61
381,03	1393,07
381,399	1418,96
381,767	1465,05
382,135	1497,16
382,503	1509,59
382,871	1495,61
383,24	1471,79
383,608	1502,34
383,976	1530,82
384,344	1539,11
384,712	1578,98
385,079	1587,79
385,447	1621,97
385,815	1595,04
386,183	1629,22
386,551	1612,13
386,918	1662,88
387,286	1660,8
387,654	1657,18
388,021	1642,68
388,389	1664,95
388,757	1662,88
389,124	1676,34
389,491	1641,13
389,859	1721,39
390,226	1733,3
390,594	1717,25
390,961	1728,13
391,328	1722,95
391,695	1710
392,063	1718,8
392,43	1721,39
392,797	1713,11
393,164	1710
393,531	1742,11
393,898	1755,57
394,265	1687,22
394,632	1778,88
394,999	1736,93
395,366	1717,25
395,732	1744,7
396,099	1758,16
396,466	1746,25
396,833	1762,31
397,199	1774,22
397,566	1798,04
397,932	1806,84
398,299	1769,04
398,665	1784,06
399,032	1809,43
399,398	1949,25
399,765	2291,04
400,131	3087,51
400,497	3960,61
400,864	5056,4
401,23	5912,42
401,596	6541,1
401,962	6989,05
402,328	7157,87
402,694	7282,16
403,06	7365,02
403,426	7345,86
403,792	7501,73
404,158	7537,98
404,524	7544,2
404,89	7648,29
405,256	7587,18
405,622	7580,96
405,987	7435,45
406,353	7456,16
406,719	7311,68
407,084	7395,05
407,45	7222,61
407,815	7111,78
408,181	6840,43
408,546	6469,64
408,912	5694,41
409,277	4902,6
409,642	4296,19
410,008	3690,81
410,373	3167,26
410,738	2827,54
411,103	2524,59
411,468	2219,06
411,834	2038,84
412,199	1867,43
412,564	1732,27
412,929	1731,23
413,294	1663,91
413,658	1624,04
414,023	1570,7
414,388	1562,41
414,753	1558,27
415,118	1565
415,482	1527,72
415,847	1499,23
416,212	1480,07
416,576	1487,32
416,941	1523,05
417,305	1423,63
417,67	1512,7
418,034	1475,93
418,399	1490,43
418,763	1473,34
419,127	1467,13
419,491	1427,25
419,856	1438,13
420,22	1396,18
420,584	1426,73
420,948	1380,64
421,312	1383,75
421,676	1358,89
422,04	1352,16
422,404	1350,09
422,768	1350,09
423,132	1327,82
423,496	1315,91
423,86	1334,04
424,223	1345,95
424,587	1315,91
424,951	1316,95
425,314	1252,21
425,678	1254,29
426,041	1274,48
426,405	1284,32
426,768	1282,77
427,132	1206,64
427,495	1193,18
427,859	1255,84
428,222	1268,79
428,585	1218,04
428,948	1267,75
429,312	1263,09
429,675	1296,23
430,038	1351,13
430,401	1505,97
430,764	2282,75
431,127	4270,29
431,49	7462,89
431,853	10948,08
432,216	14295,52
432,579	16660,58
432,941	18724,76
433,304	19848,52
433,667	20372,07
434,029	21002,82
434,392	21255,02
434,755	21230,16
435,117	21371,02
435,48	21161,8
435,842	21300,59
436,205	21454,39
436,567	21107,95
436,929	21102,77
437,292	20823,12
437,654	20762,54
438,016	20851,09
438,378	20231,21
438,74	20177,36
439,103	19544,01
439,465	18417,67
439,827	16291,34
440,189	13476,78
440,551	10594,38
440,913	8455,63
441,274	6744,1
441,636	5340,71
441,998	4161,03
442,36	3251,67
442,721	2397,2
443,083	1795,45
443,445	1306,59
443,806	1094,27
444,168	989,14
444,529	951,34
444,891	973,09
445,252	931,14
445,614	917,16
445,975	918,71
446,336	920,78
446,697	884,53
447,059	866,93
447,42	876,25
447,781	861,75
448,142	880,39
448,503	866,93
448,864	867,45
449,225	841,03
449,586	860,71
449,947	815,14
450,308	805,82
450,668	819,28
451,029	799,09
451,39	801,68
451,751	818,77
452,111	763,36
452,472	798,57
452,832	773,2
453,193	792,87
453,553	792,36
453,914	764,39
454,274	779,41
454,634	712,09
454,995	770,09
455,355	739,02
455,715	710,53
456,075	733,84
456,436	745,75
456,796	728,66
457,156	768,02
457,516	736,95
457,876	726,07
458,236	708,46
458,596	729,18
458,955	725,55
459,315	707,43
459,675	707,43
460,035	694,48
460,394	721,93
460,754	668,59
461,114	704,32
461,473	703,8
461,833	684,64
462,192	668,07
462,552	710,02
462,911	702,77
463,27	669,62
463,63	667,03
463,989	670,14
464,348	662,89
464,707	698,11
465,066	672,21
465,425	683,09
465,785	649,94
466,144	660,82
466,503	683,09
466,861	684,12
467,22	661,86
467,579	671,18
467,938	660,3
468,297	630,78
468,655	657,71
469,014	675,84
469,373	628,19
469,731	663,41
470,09	629,23
470,448	665,48
470,807	666
471,165	643,21
471,524	604,37
471,882	669,11
472,24	655,12
472,599	644,77
472,957	645,28
473,315	636,48
473,673	640,11
474,031	659,27
474,389	690,86
474,747	656,16
475,105	644,77
475,463	667,03
475,821	657,71
476,179	692,93
476,537	642,18
476,894	660,82
477,252	653,05
477,61	652,53
477,967	645,8
478,325	657,71
478,683	674,8
479,04	700,18
479,398	698,62
479,755	700,69
480,112	652,02
480,47	639,07
480,827	693,96
481,184	699,14
481,541	664,44
481,899	709,5
482,256	686,71
482,613	699,14
482,97	688,78
483,327	736,95
483,684	662,37
484,041	668,59
484,397	701,21
484,754	685,68
485,111	677,91
485,468	661,34
485,824	697,59
486,181	683,61
486,538	674,28
486,894	655,12
487,251	675,84
487,607	689,82
487,964	694,48
488,32	732,8
488,676	712,61
489,033	668,59
489,389	694,48
489,745	698,62
490,101	692,93
490,457	675,84
490,814	696,55
491,17	707,43
491,526	722,96
491,882	716,23
492,237	686,19
492,593	699,14
492,949	664,44
493,305	713,64
493,661	690,86
494,016	691,89
494,372	692,93
494,728	698,62
495,083	690,34
495,439	664,44
495,794	671,18
496,15	682,05
496,505	678,94
496,86	683,09
497,216	633,89
497,571	650,46
497,926	587,28
498,281	632,34
498,637	664,96
498,992	626,64
499,347	606,44
499,702	602,82
500,057	637
500,412	646,84
500,766	629,75
501,121	629,75
501,476	602,3
501,831	614,73
502,185	616,8
502,54	615,25
502,895	575,89
503,249	610,07
503,604	595,57
503,958	615,25
504,313	584,18
504,667	619,39
505,022	629,75
505,376	600,23
505,73	543,27
506,084	608
506,438	607,48
506,793	608
507,147	618,36
507,501	653,05
507,855	598,16
508,209	612,66
508,563	629,75
508,917	613,18
509,27	602,3
509,624	612,14
509,978	619,39
510,332	616,8
510,685	608
511,039	598,68
511,392	636,48
511,746	592,46
512,099	574,86
512,453	612,14
512,806	618,36
513,16	666
513,513	636,48
513,866	642,69
514,219	622,5
514,572	634,41
514,926	642,18
515,279	629,75
515,632	619,39
515,985	634,93
516,338	582,62
516,69	601,78
517,043	650,46
517,396	621,46
517,749	612,66
518,102	630,78
518,454	607,48
518,807	616,8
519,16	615,77
519,512	606,96
519,865	638,03
520,217	649,94
520,569	583,66
520,922	603,86
521,274	620,43
521,626	631,3
521,979	602,3
522,331	626,12
522,683	633,89
523,035	610,59
523,387	614,73
523,739	573,82
524,091	602,3
524,443	616,8
524,795	645,28
525,147	613,69
525,499	631,3
525,85	620,94
526,202	612,14
526,554	625,09
526,905	639,07
527,257	619,39
527,608	630,27
527,96	606,44
528,311	612,66
528,663	611,62
529,014	592,98
529,365	602,82
529,717	621,46
530,068	600,23
530,419	608,52
530,77	592,46
531,121	621,46
531,472	604,37
531,823	575,89
532,174	617,32
532,525	587,8
532,876	650,46
533,227	633,89
533,577	631,3
533,928	571,23
534,279	598,68
534,629	623,53
534,98	654,09
535,33	599,19
535,681	634,93
536,031	641,14
536,382	624,57
536,732	628,71
537,082	612,66
537,433	633,89
537,783	635,44
538,133	666
538,483	682,05
538,833	680,5
539,183	687,23
539,533	715,71
539,883	737,46
540,233	753,52
540,583	809,96
540,933	1077,7
541,282	3525,1
541,632	10076,52
541,982	17632,08
542,331	24086,67
542,681	29867,01
543,031	34850,36
543,38	38368,17
543,729	41381,59
544,079	43525,01
544,428	44764,24
544,778	45246,89
545,127	45498,57
545,476	45935,12
545,825	45638,91
546,174	45895,76
546,523	45327,16
546,872	45114,83
547,221	45018,51
547,57	44517,74
547,919	44402,78
548,268	43806,72
548,617	43321,49
548,966	42573,18
549,314	41896,86
549,663	40799,52
550,012	36906,78
550,36	29746,86
550,709	23309,88
551,057	18508,3
551,406	14760,55
551,754	12039,21
552,102	9752,86
552,451	7779,3
552,799	6128,37
553,147	4718,76
553,495	3465,54
553,843	2427,75
554,191	1607,98
554,539	1048,18
554,887	809,96
555,235	698,11
555,583	704,32
555,931	633,37
556,279	653,05
556,626	601,78
556,974	618,36
557,322	619,91
557,669	638,55
558,017	614,73
558,364	629,23
558,712	645,28
559,059	617,84
559,407	631,82
559,754	634,41
560,101	599,19
560,449	592,46
560,796	625,09
561,143	615,77
561,49	601,27
561,837	613,69
562,184	586,25
562,531	628,71
562,878	602,3
563,225	624,57
563,572	595,57
563,918	625,61
564,265	588,84
564,612	604,37
564,958	600,23
565,305	572,27
565,651	593,5
565,998	634,93
566,344	609,03
566,691	579,52
567,037	603,34
567,383	620,43
567,73	623,02
568,076	585,21
568,422	604,37
568,768	589,87
569,114	638,55
569,46	580,55
569,806	617,32
570,152	624,57
570,498	609,03
570,844	606,44
571,19	641,66
571,535	602,82
571,881	645,8
572,227	894,37
572,572	1573,29
572,918	2181,25
573,263	2798,02
573,609	3445,35
573,954	3930,58
574,3	4415,29
574,645	5452,57
574,99	6628,1
575,335	7445,8
575,68	8192,55
576,026	8666,91
576,371	9096,22
576,716	9460,27
577,061	9721,27
577,406	9878,7
577,75	10041,31
578,095	9992,11
578,44	9972,43
578,785	9971,4
579,13	9932,04
579,474	9846,59
579,819	9781,34
580,163	9723,34
580,508	9584,04
580,852	9242,25
581,197	8620,31
581,541	7805,2
581,885	7267,14
582,23	6646,23
582,574	6309,1
582,918	5850,8
583,262	5020,15
583,606	4002,56
583,95	3282,74
584,294	2695,49
584,638	2242,36
584,982	1862,25
585,326	1588,82
585,67	1292,09
586,014	1152,27
586,357	981,89
586,701	801,68
587,044	697,07
587,388	647,36
587,732	613,18
588,075	617,84
588,418	595,57
588,762	546,89
589,105	597,64
589,448	584,18
589,792	529,28
590,135	579
590,478	558,8
590,821	559,32
591,164	546,89
591,507	573,82
591,85	545,34
592,193	551,03
592,536	544,82
592,878	559,84
593,221	548,96
593,564	583,14
593,907	526,69
594,249	552,07
594,592	539,12
594,934	557,77
595,277	550,52
595,619	530,32
595,961	558,8
596,304	562,94
596,646	536,02
596,988	552,59
597,33	522,03
597,672	536,53
598,014	539,64
598,357	530,84
598,698	565,53
599,04	558,28
599,382	539,12
599,724	539,12
600,066	497,69
600,408	524,11
600,749	520,48
601,091	513,23
601,432	509,09
601,774	526,18
602,116	518,41
602,457	532,39
602,798	565,53
603,14	550
603,481	530,84
603,822	534,46
604,163	526,69
604,505	515,82
604,846	537,57
605,187	501,32
605,528	547,41
605,869	494,07
606,21	534,46
606,55	566,57
606,891	509,61
607,232	498,21
607,573	549,48
607,913	501,32
608,254	509,61
608,594	539,64
608,935	517,89
609,275	485,27
609,616	513,23
609,956	521
610,297	488,89
610,637	497,69
610,977	488,89
611,317	476,98
611,657	520,48
611,997	525,66
612,337	483,71
612,677	515,3
613,017	522,55
613,357	530,32
613,697	496,14
614,037	496,14
614,377	478,02
