Data from USB2H144621__6__11-42-47-545.txt Node

Date: Tue Apr 23 11:42:47 CEST 2024
User: experimenter
Spectrometer: USB2+H14462
Trigger mode: 0
Integration Time (sec): 5,000000E-2
Scans to average: 5
Electric dark correction enabled: true
Nonlinearity correction enabled: false
Boxcar width: 0
XAxis mode: Wavelengths
Number of Pixels in Spectrum: 2048
>>>>>Begin Spectral Data<<<<<
171,283	-91,63
171,67	-91,63
172,056	-91,63
172,443	-104,06
172,829	-89,04
173,216	-119,08
173,602	-94,74
173,989	-117,52
174,375	-69,36
174,762	-82,31
175,148	-58,49
175,534	-42,43
175,921	-19,13
176,307	-13,43
176,693	-3,59
177,08	16,6
177,466	39,91
177,852	66,32
178,238	79,78
178,624	66,84
179,01	120,18
179,396	111,37
179,782	155,39
180,168	140,37
180,554	217,02
180,94	185,43
181,326	216,5
181,712	251,19
182,098	270,35
182,484	252,75
182,87	264,14
183,255	261,03
183,641	276,57
184,027	301,43
184,413	307,12
184,798	307,64
185,184	304,02
185,57	298,32
185,955	302,98
186,341	279,16
186,726	299,35
187,112	290,03
187,497	327,32
187,883	320,59
188,268	292,1
188,653	308,16
189,039	318,52
189,424	338,71
189,809	311,78
190,195	299,35
190,58	304,53
190,965	322,66
191,35	324,21
191,735	310,75
192,12	288,48
192,505	298,84
192,891	289
193,276	278,12
193,661	304,53
194,046	301,94
194,43	296,77
194,815	278,12
195,2	295,73
195,585	283,82
195,97	281,75
196,355	264,66
196,739	324,21
197,124	295,73
197,509	311,78
197,894	313,34
198,278	291,59
198,663	311,27
199,047	295,73
199,432	297,8
199,816	280,71
200,201	277,09
200,585	294,18
200,97	253,78
201,354	281,75
201,739	279,68
202,123	264,14
202,507	288,48
202,892	285,89
203,276	283,3
203,66	280,19
204,044	290,03
204,428	296,77
204,813	240,32
205,197	297,28
205,581	274,5
205,965	273,46
206,349	280,19
206,733	277,6
207,117	295,73
207,501	277,6
207,885	271,39
208,269	312,3
208,652	280,71
209,036	328,87
209,42	283,82
209,804	278,12
210,187	247,05
210,571	305,57
210,955	287,96
211,338	273,98
211,722	286,41
212,106	297,8
212,489	291,59
212,873	285,37
213,256	255,85
213,64	288,48
214,023	284,34
214,406	314,37
214,79	345,96
215,173	307,64
215,556	298,32
215,94	300,91
216,323	281,23
216,706	287,44
217,089	302,46
217,472	306,6
217,856	296,25
218,239	293,66
218,622	290,55
219,005	302,98
219,388	276,57
219,771	287,44
220,154	311,78
220,537	337,16
220,919	292,1
221,302	293,14
221,685	296,77
222,068	282,27
222,451	300,39
222,833	328,87
223,216	307,64
223,599	336,64
223,981	295,21
224,364	324,21
224,746	297,28
225,129	327,32
225,512	279,16
225,894	290,03
226,276	312,3
226,659	300,91
227,041	336,12
227,424	320,07
227,806	302,98
228,188	308,16
228,57	304,02
228,953	312,3
229,335	273,46
229,717	301,94
230,099	337,16
230,481	296,77
230,863	322,14
231,245	315,41
231,627	325,25
232,009	321,62
232,391	322,14
232,773	281,75
233,155	329,91
233,537	332,5
233,919	306,6
234,301	292,1
234,682	314,89
235,064	326,8
235,446	319,03
235,828	301,43
236,209	297,28
236,591	316,44
236,972	304,53
237,354	333,02
237,736	321,62
238,117	309,71
238,498	333,02
238,88	330,43
239,261	287,44
239,643	290,55
240,024	297,8
240,405	327,32
240,787	325,25
241,168	338,19
241,549	329,39
241,93	332,5
242,311	306,09
242,692	335,6
243,073	341,82
243,455	353,73
243,836	355,28
244,217	318
244,597	376
244,978	372,37
245,359	356,84
245,74	384,28
246,121	371,85
246,502	411,73
246,883	395,68
247,263	381,69
247,644	432,44
248,025	492
248,405	564,5
248,786	814,11
249,166	1478
249,547	2758,15
249,927	4330,37
250,308	6476,89
250,688	8252,63
251,069	9782,38
251,449	10822,76
251,83	11335,44
252,21	11796,33
252,59	12014,87
252,97	12442,62
253,351	12845,51
253,731	12996,73
254,111	13368,03
254,491	13717,07
254,871	13883,82
255,251	14126,18
255,631	14237
256,011	14312,61
256,391	14530,63
256,771	14408,93
257,151	14320,37
257,531	13946,48
257,911	13138,1
258,291	11767,85
258,67	9649,29
259,05	7309,09
259,43	5306,53
259,81	3435,51
260,189	1955,47
260,569	868,48
260,948	556,73
261,328	505,98
261,707	452,12
262,087	444,87
262,466	445,39
262,846	433,48
263,225	422,09
263,605	405,52
263,984	411,21
264,363	404,48
264,742	395,16
265,122	393,09
265,501	413,28
265,88	427,78
266,259	410,18
266,638	402,93
267,017	406,55
267,396	406,03
267,775	372,37
268,154	374,96
268,533	385,84
268,912	382,21
269,291	377,03
269,67	386,87
270,049	392,05
270,427	379,62
270,806	409,66
271,185	397,23
271,563	387,91
271,942	370,82
272,321	376,52
272,699	400,34
273,078	384,8
273,456	408,62
273,835	378,59
274,213	410,69
274,592	393,6
274,97	412,77
275,348	436,59
275,727	407,59
276,105	408,62
276,483	425,71
276,861	416,39
277,24	421,57
277,618	443,32
277,996	457,3
278,374	384,8
278,752	409,14
279,13	453,16
279,508	428,82
279,886	451,61
280,264	428,82
280,642	464,55
281,02	458,34
281,397	441,77
281,775	438,14
282,153	430,89
282,531	427,27
282,908	429,34
283,286	423,12
283,664	415,35
284,041	426,75
284,419	426,23
284,796	437,62
285,174	429,34
285,551	467,14
285,929	445,39
286,306	428,82
286,683	438,14
287,061	483,19
287,438	462,48
287,815	464,55
288,192	427,78
288,569	442,8
288,947	415,35
289,324	435,03
289,701	438,66
290,078	397,75
290,455	449,53
290,832	441,25
291,209	422,6
291,586	437,62
291,963	440,73
292,339	499,25
292,716	629,23
293,093	658,75
293,47	708,46
293,846	778,89
294,223	766,46
294,6	779,93
294,976	776,3
295,353	803,23
295,729	788,21
296,106	816,18
296,482	774,23
296,859	811
297,235	811,52
297,612	824,46
297,988	837,93
298,364	797,53
298,741	852,43
299,117	821,87
299,493	842,59
299,869	833,78
300,245	863,3
300,621	813,59
300,997	777,86
301,373	733,84
301,749	667,03
302,125	633,89
302,501	509,61
302,877	507,53
303,253	485,78
303,629	463
304,005	440,21
304,38	432,96
304,756	414,84
305,132	440,21
305,508	447,46
305,883	428,82
306,259	438,14
306,634	421,05
307,01	434
307,385	454,19
307,761	520,48
308,136	654,09
308,512	973,09
308,887	1319,54
309,262	1740,55
309,637	2086,48
310,013	2285,86
310,388	2442,25
310,763	2561,36
311,138	2594,5
311,513	2659,24
311,888	2741,58
312,263	2755,04
312,638	2803,72
313,013	2745,72
313,388	2801,65
313,763	2804,75
314,138	2794,91
314,513	2789,22
314,888	2730,7
315,262	2766,43
315,637	2720,34
316,012	2670,11
316,386	2654,06
316,761	2430,86
317,136	2224,75
317,51	1867,43
317,885	1608,5
318,259	1248,59
318,634	1028,5
319,008	764,91
319,382	601,27
319,757	474,91
320,131	421,57
320,505	377,55
320,88	372,89
321,254	362,02
321,628	363,05
322,002	387,39
322,376	341,82
322,75	348,55
323,124	363,57
323,498	385,84
323,872	367,19
324,246	344,93
324,62	347,52
324,994	377,03
325,368	363,57
325,741	338,71
326,115	382,21
326,489	319,55
326,862	350,1
327,236	320,59
327,61	316,96
327,983	344,93
328,357	344,93
328,73	327,32
329,104	379,62
329,477	372,89
329,851	341,3
330,224	341,82
330,597	386,87
330,97	454,71
331,344	418,98
331,717	415,87
332,09	392,57
332,463	430,37
332,836	406,03
333,209	420,53
333,582	420,02
333,955	379,1
334,328	400,85
334,701	417,43
335,074	403,96
335,447	424,16
335,82	439,69
336,193	419,5
336,565	402,41
336,938	421,57
337,311	392,57
337,683	398,78
338,056	423,64
338,429	408,62
338,801	386,35
339,174	373,41
339,546	374,96
339,918	339,75
340,291	382,73
340,663	352,18
341,036	325,25
341,408	356,84
341,78	341,82
342,152	347,52
342,524	362,53
342,897	352,18
343,269	336,64
343,641	345,96
344,013	350,1
344,385	345,96
344,757	331,98
345,129	359,94
345,501	326,8
345,872	367,71
346,244	380,14
346,616	320,59
346,988	348,55
347,359	349,07
347,731	378,59
348,103	338,71
348,474	355,8
348,846	368,75
349,217	361,5
349,589	348,03
349,96	377,55
350,332	355,28
350,703	347
351,074	385,32
351,446	371,34
351,817	362,02
352,188	358,91
352,559	374,44
352,931	356,32
353,302	372,37
353,673	366,68
354,044	394,12
354,415	370,3
354,786	371,34
355,157	403,96
355,528	373,93
355,898	401,89
356,269	370,3
356,64	398,78
357,011	395,16
357,382	422,09
357,752	389,46
358,123	421,57
358,493	419,5
358,864	412,77
359,235	445,91
359,605	468,18
359,976	602,3
360,346	787,18
360,716	1179,2
361,087	1710,52
361,457	2110,31
361,827	2505,95
362,198	2851,36
362,568	3064,72
362,938	3227,33
363,308	3317,95
363,678	3390,97
364,048	3417,38
364,418	3392,52
364,788	3442,76
365,158	3472,79
365,528	3479,52
365,898	3470,2
366,268	3467,1
366,637	3462,43
367,007	3440,68
367,377	3446,9
367,747	3446,38
368,116	3367,67
368,486	3291,02
368,855	3097,86
369,225	2879,84
369,595	2557,74
369,964	2241,84
370,333	1877,79
370,703	1628,18
371,072	1365,63
371,441	1116,54
371,811	959,11
372,18	842,59
372,549	755,59
372,918	722,45
373,287	708,98
373,656	686,19
374,026	740,05
374,395	728,66
374,764	754,55
375,132	732,8
375,501	787,18
375,87	768,02
376,239	763,87
376,608	762,32
376,977	766,98
377,345	795,98
377,714	766,46
378,083	768,53
378,451	805,3
378,82	785,11
379,188	826,02
379,557	826,02
379,925	848,8
380,294	838,96
380,662	876,77
381,03	890,23
381,399	836,89
381,767	897,48
382,135	885,05
382,503	888,68
382,871	909,91
383,24	908,36
383,608	887,64
383,976	916,64
384,344	921,82
384,712	946,68
385,079	931,66
385,447	947,71
385,815	962,21
386,183	939,43
386,551	942,53
386,918	935,8
387,286	959,11
387,654	979,82
388,021	947,71
388,389	969,46
388,757	986,04
389,124	1008,82
389,491	1015,04
389,859	978,79
390,226	1005,71
390,594	962,73
390,961	990,18
391,328	1047,14
391,695	989,14
392,063	998,98
392,43	998,98
392,797	997,95
393,164	1012,96
393,531	1034,71
393,898	979,3
394,265	1011,93
394,632	1021,77
394,999	980,34
395,366	1022,8
395,732	1049,21
396,099	1004,68
396,466	1012,45
396,833	995,36
397,199	1026,43
397,566	1028,5
397,932	1035,23
398,299	1033,16
398,665	1045,59
399,032	1061,12
399,398	1139,84
399,765	1359,41
400,131	1847,23
400,497	2388,4
400,864	2998,95
401,23	3489,36
401,596	3927,47
401,962	4191,58
402,328	4295,67
402,694	4337,1
403,06	4486,76
403,426	4416,33
403,792	4554,08
404,158	4474,85
404,524	4480,03
404,89	4519,38
405,256	4518,35
405,622	4557,71
405,987	4376,97
406,353	4434,97
406,719	4397,17
407,084	4402,35
407,45	4325,7
407,815	4245,44
408,181	4060,56
408,546	3802,67
408,912	3425,15
409,277	2919,72
409,642	2557,74
410,008	2202,48
410,373	1871,06
410,738	1685,14
411,103	1438,13
411,468	1305,55
411,834	1193,7
412,199	1086,5
412,564	1034,71
412,929	970,5
413,294	969,46
413,658	963,77
414,023	907,32
414,388	940,46
414,753	923,37
415,118	935,28
415,482	924,93
415,847	980,86
416,212	923,37
416,576	885,57
416,941	903,7
417,305	893,86
417,67	894,89
418,034	874,7
418,399	880,91
418,763	895,93
419,127	856,57
419,491	913,53
419,856	859,68
420,22	868,48
420,584	872,62
420,948	855,02
421,312	862,27
421,676	839,48
422,04	859,16
422,404	817,73
422,768	830,68
423,132	816,18
423,496	807,89
423,86	832,23
424,223	827,57
424,587	780,45
424,951	795,46
425,314	827,05
425,678	808,93
426,041	788,21
426,405	773,71
426,768	782
427,132	808,41
427,495	805,3
427,859	768,53
428,222	785,62
428,585	805,82
428,948	814,11
429,312	823,95
429,675	814,62
430,038	821,87
430,401	994,32
430,764	1510,63
431,127	2828,58
431,49	5005,14
431,853	7164,61
432,216	9417,81
432,579	10983,29
432,941	12265,51
433,304	13131,89
433,667	13379,94
434,029	13894,7
434,392	13941,82
434,755	13884,86
435,117	14127,21
435,48	13851,71
435,842	13914,89
436,205	13996,2
436,567	13947
436,929	13853,78
437,292	13646,12
437,654	13570,52
438,016	13670,98
438,378	13348,87
438,74	13169,18
439,103	12799,94
439,465	12105,49
439,827	10620,79
440,189	8863,18
440,551	6989,05
440,913	5620,87
441,274	4509,54
441,636	3595,01
441,998	2806,31
442,36	2108,75
442,721	1619,38
443,083	1211,82
443,445	897,48
443,806	738,5
444,168	649,94
444,529	648,39
444,891	612,66
445,252	622,5
445,614	611,62
445,975	606,44
446,336	637
446,697	595,05
447,059	629,23
447,42	608
447,781	618,36
448,142	591,43
448,503	560,36
448,864	599,19
449,225	593,5
449,586	558,8
449,947	554,14
450,308	562,43
450,668	588,32
451,029	597,12
451,39	585,21
451,751	584,18
452,111	545,34
452,472	562,94
452,832	575,37
453,193	548,96
453,553	548,96
453,914	565,53
454,274	575,89
454,634	570,71
454,995	558,8
455,355	528,25
455,715	526,69
456,075	502,36
456,436	525,66
456,796	541,71
457,156	526,69
457,516	489,41
457,876	492,52
458,236	565,02
458,596	542,23
458,955	498,73
459,315	540,68
459,675	524,62
460,035	517,89
460,394	513,23
460,754	525,66
461,114	512,71
461,473	544,82
461,833	547,93
462,192	548,96
462,552	528,77
462,911	525,66
463,27	509,61
463,63	545,34
463,989	474,91
464,348	483,71
464,707	493,55
465,066	492,52
465,425	511,68
465,785	539,12
466,144	512,19
466,503	495,62
466,861	500,8
467,22	495,62
467,579	504,43
467,938	508,05
468,297	481,64
468,655	515,82
469,014	499,25
469,373	475,43
469,731	495,62
470,09	504,94
470,448	498,73
470,807	510,64
471,165	490,96
471,524	513,75
471,882	469,73
472,24	459,89
472,599	490,44
472,957	514,78
473,315	467,66
473,673	515,82
474,031	490,96
474,389	470,25
474,747	508,05
475,105	490,96
475,463	499,77
475,821	476,46
476,179	514,27
476,537	481,12
476,894	526,69
477,252	499,77
477,61	490,96
477,967	481,64
478,325	519,44
478,683	483,71
479,04	525,66
479,398	503,91
479,755	501,32
480,112	523,59
480,47	488,89
480,827	519,96
481,184	497,69
481,541	484,23
481,899	509,61
482,256	497,69
482,613	500,8
482,97	507,53
483,327	519,96
483,684	501,84
484,041	510,12
484,397	497,18
484,754	536,53
485,111	518,41
485,468	505,98
485,824	519,44
486,181	526,69
486,538	508,57
486,894	526,69
487,251	522,03
487,607	508,57
487,964	541,71
488,32	493,55
488,676	504,43
489,033	529,8
489,389	518,93
489,745	545,86
490,101	558,28
490,457	523,07
490,814	550,52
491,17	515,82
491,526	497,18
491,882	540,68
492,237	566,57
492,593	559,32
492,949	511,68
493,305	531,36
493,661	546,37
494,016	519,44
494,372	534,46
494,728	536,02
495,083	547,41
495,439	511,16
495,794	503,91
496,15	532,91
496,505	524,62
496,86	482,68
497,216	481,12
497,571	485,27
497,926	501,32
498,281	505,98
498,637	531,36
498,992	486,82
499,347	500,8
499,702	494,59
500,057	501,32
500,412	495,11
500,766	520,48
501,121	524,62
501,476	510,64
501,831	495,62
502,185	524,62
502,54	488,89
502,895	494,59
503,249	473,36
503,604	512,19
503,958	472,84
504,313	478,53
504,667	485,27
505,022	462,48
505,376	486,82
505,73	478,02
506,084	491,48
506,438	511,68
506,793	505,98
507,147	525,14
507,501	497,18
507,855	491,48
508,209	462,48
508,563	487,86
508,917	480,09
509,27	500,8
509,624	491,48
509,978	465,07
510,332	489,41
510,685	483,71
511,039	500,28
511,392	476,98
511,746	460,41
512,099	505,46
512,453	475,43
512,806	511,16
513,16	490,96
513,513	504,94
513,866	501,84
514,219	484,23
514,572	501,32
514,926	494,59
515,279	517,89
515,632	494,07
515,985	503,39
516,338	498,73
516,69	522,03
517,043	511,16
517,396	497,18
517,749	504,43
518,102	522,55
518,454	499,25
518,807	523,07
519,16	504,94
519,512	485,27
519,865	510,12
520,217	483,71
520,569	508,57
520,922	495,62
521,274	510,64
521,626	482,16
521,979	500,8
522,331	499,25
522,683	503,91
523,035	504,43
523,387	514,78
523,739	492
524,091	496,14
524,443	471,28
524,795	494,59
525,147	546,37
525,499	498,21
525,85	485,27
526,202	500,8
526,554	468,69
526,905	480,09
527,257	494,59
527,608	473,36
527,96	498,21
528,311	491,48
528,663	499,25
529,014	489,93
529,365	491,48
529,717	484,23
530,068	486,3
530,419	517,89
530,77	502,36
531,121	491,48
531,472	449,53
531,823	464,03
532,174	508,05
532,525	490,96
532,876	474,39
533,227	503,39
533,577	515,82
533,928	511,68
534,279	487,86
534,629	480,61
534,98	476,98
535,33	500,8
535,681	501,32
536,031	502,87
536,382	494,59
536,732	492
537,082	509,61
537,433	536,53
537,783	502,36
538,133	520,48
538,483	497,69
538,833	517,37
539,183	534,98
539,533	543,27
539,883	584,18
540,233	593,5
540,583	658,23
540,933	838,96
541,282	2280,68
541,632	6195,17
541,982	10687,08
542,331	14413,07
542,681	18111,62
543,031	20863,52
543,38	23019,36
543,729	24797,17
544,079	25921,96
544,428	26738,62
544,778	27011,02
545,127	27288,59
545,476	27679,05
545,825	27478,64
546,174	27505,05
546,523	27196,93
546,872	27072,12
547,221	27058,14
547,57	26890,36
547,919	26685,8
548,268	26108,91
548,617	25951,48
548,966	25418,6
549,314	25049,89
549,663	24508,21
550,012	22120,36
550,36	17861,49
550,709	14072,84
551,057	11231,35
551,406	9122,11
551,754	7381,59
552,102	6054,83
552,451	4862,21
552,799	3880,86
553,147	3035,2
553,495	2226,31
553,843	1603,84
554,191	1128,45
554,539	741,61
554,887	605,93
555,235	566,57
555,583	527,21
555,931	562,94
556,279	535,5
556,626	535,5
556,974	500,28
557,322	518,41
557,669	475,43
558,017	493,55
558,364	499,77
558,712	516,34
559,059	518,41
559,407	508,05
559,754	516,34
560,101	494,07
560,449	470,77
560,796	499,25
561,143	471,28
561,49	489,41
561,837	497,69
562,184	507,53
562,531	479,05
562,878	490,44
563,225	489,93
563,572	496,66
563,918	488,89
564,265	492,52
564,612	498,73
564,958	475,94
565,305	504,43
565,651	482,68
565,998	480,09
566,344	470,77
566,691	507,02
567,037	497,18
567,383	522,03
567,73	510,12
568,076	507,53
568,422	498,21
568,768	523,07
569,114	504,94
569,46	479,57
569,806	466,62
570,152	492,52
570,498	506,5
570,844	491,48
571,19	533,94
571,535	511,16
571,881	534,98
572,227	672,21
572,572	1044,55
572,918	1470,23
573,263	1807,88
573,609	2142,41
573,954	2357,84
574,3	2796,47
574,645	3321,58
574,99	3945,6
575,335	4477,44
575,68	4891,21
576,026	5186,9
576,371	5509,53
576,716	5702,69
577,061	5855,98
577,406	5900,51
577,75	5971,46
578,095	5923,3
578,44	6023,76
578,785	5980,26
579,13	5882,91
579,474	5853,39
579,819	5855,46
580,163	5868,41
580,508	5761,21
580,852	5466,03
581,197	5099,9
581,541	4673,19
581,885	4342,28
582,23	4150,67
582,574	3888,63
582,918	3548,4
583,262	3108,22
583,606	2553,08
583,95	2070,95
584,294	1720,36
584,638	1459,36
584,982	1227,87
585,326	1093,23
585,67	914,05
586,014	847,77
586,357	754,55
586,701	638,03
587,044	576,41
587,388	505,46
587,732	483,71
588,075	491,48
588,418	490,44
588,762	438,66
589,105	471,8
589,448	469,21
589,792	480,09
590,135	478,02
590,478	442,8
590,821	452,12
591,164	447,46
591,507	459,89
591,85	476,98
592,193	463
592,536	458,34
592,878	483,19
593,221	473,36
593,564	480,09
593,907	467,14
594,249	437,62
594,592	453,16
594,934	475,43
595,277	460,93
595,619	477,5
595,961	437,62
596,304	459,89
596,646	455,75
596,988	461,96
597,33	463,52
597,672	438,14
598,014	467,14
598,357	453,16
598,698	458,86
599,04	449,53
599,382	453,68
599,724	446,94
600,066	466,62
600,408	442,8
600,749	440,73
601,091	451,61
601,432	455,23
601,774	417,94
602,116	452,64
602,457	460,93
602,798	460,41
603,14	459,89
603,481	430,37
603,822	438,66
604,163	439,18
604,505	427,78
604,846	444,36
605,187	397,75
605,528	440,21
605,869	411,21
606,21	452,64
606,55	437,62
606,891	438,66
607,232	454,19
607,573	432,44
607,913	427,27
608,254	425,19
608,594	401,89
608,935	442,8
609,275	483,71
609,616	417,43
609,956	425,71
610,297	448,5
610,637	443,84
610,977	405,52
611,317	452,64
611,657	477,5
611,997	456,27
612,337	408,1
612,677	430,37
613,017	439,18
613,357	446,43
613,697	432,44
614,037	407,59
614,377	422,6
614,716	409,66
615,056	446,43
615,395	434,52
615,735	436,59
616,074	426,75
616,414	425,71
616,753	435,55
617,093	421,05
